sqrt(x^a)/a, 2.0, -24, 24, 0.01, 
-24.0, 12.00005
-23.99, 11.995049999999999
-23.979999999999997, 11.990049999999998
-23.969999999999995, 11.985049999999998
-23.959999999999994, 11.980049999999997
-23.949999999999992, 11.975049999999996
-23.93999999999999, 11.970049999999995
-23.92999999999999, 11.965049999999994
-23.919999999999987, 11.960049999999994
-23.909999999999986, 11.955049999999993
-23.899999999999984, 11.950049999999992
-23.889999999999983, 11.945049999999991
-23.87999999999998, 11.94004999999999
-23.86999999999998, 11.93504999999999
-23.859999999999978, 11.930049999999989
-23.849999999999977, 11.925049999999988
-23.839999999999975, 11.920049999999987
-23.829999999999973, 11.915049999999987
-23.819999999999972, 11.910049999999986
-23.80999999999997, 11.905049999999985
-23.79999999999997, 11.900049999999984
-23.789999999999967, 11.895049999999983
-23.779999999999966, 11.890049999999983
-23.769999999999964, 11.885049999999982
-23.759999999999962, 11.880049999999981
-23.74999999999996, 11.87504999999998
-23.73999999999996, 11.87004999999998
-23.729999999999958, 11.865049999999979
-23.719999999999956, 11.860049999999978
-23.709999999999955, 11.855049999999977
-23.699999999999953, 11.850049999999976
-23.68999999999995, 11.845049999999976
-23.67999999999995, 11.840049999999975
-23.66999999999995, 11.835049999999974
-23.659999999999947, 11.830049999999973
-23.649999999999945, 11.825049999999973
-23.639999999999944, 11.820049999999972
-23.629999999999942, 11.815049999999971
-23.61999999999994, 11.81004999999997
-23.60999999999994, 11.80504999999997
-23.599999999999937, 11.800049999999969
-23.589999999999936, 11.795049999999968
-23.579999999999934, 11.790049999999967
-23.569999999999933, 11.785049999999966
-23.55999999999993, 11.780049999999965
-23.54999999999993, 11.775049999999965
-23.539999999999928, 11.770049999999964
-23.529999999999927, 11.765049999999963
-23.519999999999925, 11.760049999999962
-23.509999999999923, 11.755049999999962
-23.499999999999922, 11.75004999999996
-23.48999999999992, 11.74504999999996
-23.47999999999992, 11.74004999999996
-23.469999999999917, 11.735049999999958
-23.459999999999916, 11.730049999999958
-23.449999999999914, 11.725049999999957
-23.439999999999912, 11.720049999999956
-23.42999999999991, 11.715049999999955
-23.41999999999991, 11.710049999999955
-23.409999999999908, 11.705049999999954
-23.399999999999906, 11.700049999999953
-23.389999999999905, 11.695049999999952
-23.379999999999903, 11.690049999999951
-23.3699999999999, 11.68504999999995
-23.3599999999999, 11.68004999999995
-23.3499999999999, 11.675049999999949
-23.339999999999897, 11.670049999999948
-23.329999999999895, 11.665049999999948
-23.319999999999894, 11.660049999999947
-23.309999999999892, 11.655049999999946
-23.29999999999989, 11.650049999999945
-23.28999999999989, 11.645049999999944
-23.279999999999887, 11.640049999999944
-23.269999999999886, 11.635049999999943
-23.259999999999884, 11.630049999999942
-23.249999999999883, 11.625049999999941
-23.23999999999988, 11.62004999999994
-23.22999999999988, 11.61504999999994
-23.219999999999878, 11.610049999999939
-23.209999999999877, 11.605049999999938
-23.199999999999875, 11.600049999999937
-23.189999999999873, 11.595049999999937
-23.179999999999872, 11.590049999999936
-23.16999999999987, 11.585049999999935
-23.15999999999987, 11.580049999999934
-23.149999999999867, 11.575049999999933
-23.139999999999866, 11.570049999999933
-23.129999999999864, 11.565049999999932
-23.119999999999862, 11.560049999999931
-23.10999999999986, 11.55504999999993
-23.09999999999986, 11.55004999999993
-23.089999999999858, 11.545049999999929
-23.079999999999856, 11.540049999999928
-23.069999999999855, 11.535049999999927
-23.059999999999853, 11.530049999999926
-23.04999999999985, 11.525049999999926
-23.03999999999985, 11.520049999999925
-23.02999999999985, 11.515049999999924
-23.019999999999847, 11.510049999999923
-23.009999999999845, 11.505049999999923
-22.999999999999844, 11.500049999999922
-22.989999999999842, 11.495049999999921
-22.97999999999984, 11.49004999999992
-22.96999999999984, 11.48504999999992
-22.959999999999837, 11.480049999999919
-22.949999999999836, 11.475049999999918
-22.939999999999834, 11.470049999999917
-22.929999999999833, 11.465049999999916
-22.91999999999983, 11.460049999999915
-22.90999999999983, 11.455049999999915
-22.899999999999828, 11.450049999999914
-22.889999999999826, 11.445049999999913
-22.879999999999825, 11.440049999999912
-22.869999999999823, 11.435049999999912
-22.859999999999822, 11.43004999999991
-22.84999999999982, 11.42504999999991
-22.83999999999982, 11.42004999999991
-22.829999999999817, 11.415049999999908
-22.819999999999816, 11.410049999999908
-22.809999999999814, 11.405049999999907
-22.799999999999812, 11.400049999999906
-22.78999999999981, 11.395049999999905
-22.77999999999981, 11.390049999999905
-22.769999999999808, 11.385049999999904
-22.759999999999806, 11.380049999999903
-22.749999999999805, 11.375049999999902
-22.739999999999803, 11.370049999999901
-22.7299999999998, 11.3650499999999
-22.7199999999998, 11.3600499999999
-22.7099999999998, 11.355049999999899
-22.699999999999797, 11.350049999999898
-22.689999999999795, 11.345049999999897
-22.679999999999794, 11.340049999999897
-22.669999999999792, 11.335049999999896
-22.65999999999979, 11.330049999999895
-22.64999999999979, 11.325049999999894
-22.639999999999787, 11.320049999999894
-22.629999999999786, 11.315049999999893
-22.619999999999784, 11.310049999999892
-22.609999999999783, 11.305049999999891
-22.59999999999978, 11.30004999999989
-22.58999999999978, 11.29504999999989
-22.579999999999778, 11.290049999999889
-22.569999999999776, 11.285049999999888
-22.559999999999775, 11.280049999999887
-22.549999999999773, 11.275049999999887
-22.53999999999977, 11.270049999999886
-22.52999999999977, 11.265049999999885
-22.51999999999977, 11.260049999999884
-22.509999999999767, 11.255049999999883
-22.499999999999766, 11.250049999999883
-22.489999999999764, 11.245049999999882
-22.479999999999762, 11.240049999999881
-22.46999999999976, 11.23504999999988
-22.45999999999976, 11.23004999999988
-22.449999999999758, 11.225049999999879
-22.439999999999756, 11.220049999999878
-22.429999999999755, 11.215049999999877
-22.419999999999753, 11.210049999999876
-22.40999999999975, 11.205049999999876
-22.39999999999975, 11.200049999999875
-22.38999999999975, 11.195049999999874
-22.379999999999747, 11.190049999999873
-22.369999999999745, 11.185049999999872
-22.359999999999744, 11.180049999999872
-22.349999999999742, 11.175049999999871
-22.33999999999974, 11.17004999999987
-22.32999999999974, 11.16504999999987
-22.319999999999737, 11.160049999999869
-22.309999999999736, 11.155049999999868
-22.299999999999734, 11.150049999999867
-22.289999999999733, 11.145049999999866
-22.27999999999973, 11.140049999999865
-22.26999999999973, 11.135049999999865
-22.259999999999728, 11.130049999999864
-22.249999999999726, 11.125049999999863
-22.239999999999725, 11.120049999999862
-22.229999999999723, 11.115049999999862
-22.21999999999972, 11.11004999999986
-22.20999999999972, 11.10504999999986
-22.19999999999972, 11.10004999999986
-22.189999999999717, 11.095049999999858
-22.179999999999715, 11.090049999999858
-22.169999999999714, 11.085049999999857
-22.159999999999712, 11.080049999999856
-22.14999999999971, 11.075049999999855
-22.13999999999971, 11.070049999999855
-22.129999999999708, 11.065049999999854
-22.119999999999706, 11.060049999999853
-22.109999999999705, 11.055049999999852
-22.099999999999703, 11.050049999999851
-22.0899999999997, 11.04504999999985
-22.0799999999997, 11.04004999999985
-22.0699999999997, 11.035049999999849
-22.059999999999697, 11.030049999999848
-22.049999999999695, 11.025049999999847
-22.039999999999694, 11.020049999999847
-22.029999999999692, 11.015049999999846
-22.01999999999969, 11.010049999999845
-22.00999999999969, 11.005049999999844
-21.999999999999687, 11.000049999999844
-21.989999999999686, 10.995049999999843
-21.979999999999684, 10.990049999999842
-21.969999999999683, 10.985049999999841
-21.95999999999968, 10.98004999999984
-21.94999999999968, 10.97504999999984
-21.939999999999678, 10.970049999999839
-21.929999999999676, 10.965049999999838
-21.919999999999675, 10.960049999999837
-21.909999999999673, 10.955049999999837
-21.89999999999967, 10.950049999999836
-21.88999999999967, 10.945049999999835
-21.87999999999967, 10.940049999999834
-21.869999999999667, 10.935049999999833
-21.859999999999665, 10.930049999999833
-21.849999999999664, 10.925049999999832
-21.839999999999662, 10.920049999999831
-21.82999999999966, 10.91504999999983
-21.81999999999966, 10.91004999999983
-21.809999999999658, 10.905049999999829
-21.799999999999656, 10.900049999999828
-21.789999999999655, 10.895049999999827
-21.779999999999653, 10.890049999999826
-21.76999999999965, 10.885049999999826
-21.75999999999965, 10.880049999999825
-21.74999999999965, 10.875049999999824
-21.739999999999647, 10.870049999999823
-21.729999999999645, 10.865049999999822
-21.719999999999644, 10.860049999999822
-21.709999999999642, 10.855049999999821
-21.69999999999964, 10.85004999999982
-21.68999999999964, 10.84504999999982
-21.679999999999637, 10.840049999999819
-21.669999999999636, 10.835049999999818
-21.659999999999634, 10.830049999999817
-21.649999999999633, 10.825049999999816
-21.63999999999963, 10.820049999999815
-21.62999999999963, 10.815049999999815
-21.619999999999628, 10.810049999999814
-21.609999999999626, 10.805049999999813
-21.599999999999625, 10.800049999999812
-21.589999999999623, 10.795049999999812
-21.57999999999962, 10.79004999999981
-21.56999999999962, 10.78504999999981
-21.55999999999962, 10.78004999999981
-21.549999999999617, 10.775049999999808
-21.539999999999615, 10.770049999999808
-21.529999999999614, 10.765049999999807
-21.519999999999612, 10.760049999999806
-21.50999999999961, 10.755049999999805
-21.49999999999961, 10.750049999999804
-21.489999999999608, 10.745049999999804
-21.479999999999606, 10.740049999999803
-21.469999999999605, 10.735049999999802
-21.459999999999603, 10.730049999999801
-21.4499999999996, 10.7250499999998
-21.4399999999996, 10.7200499999998
-21.4299999999996, 10.715049999999799
-21.419999999999597, 10.710049999999798
-21.409999999999595, 10.705049999999797
-21.399999999999594, 10.700049999999797
-21.389999999999592, 10.695049999999796
-21.37999999999959, 10.690049999999795
-21.36999999999959, 10.685049999999794
-21.359999999999587, 10.680049999999794
-21.349999999999586, 10.675049999999793
-21.339999999999584, 10.670049999999792
-21.329999999999583, 10.665049999999791
-21.31999999999958, 10.66004999999979
-21.30999999999958, 10.65504999999979
-21.299999999999578, 10.650049999999789
-21.289999999999576, 10.645049999999788
-21.279999999999575, 10.640049999999787
-21.269999999999573, 10.635049999999787
-21.25999999999957, 10.630049999999786
-21.24999999999957, 10.625049999999785
-21.23999999999957, 10.620049999999784
-21.229999999999567, 10.615049999999783
-21.219999999999565, 10.610049999999783
-21.209999999999564, 10.605049999999782
-21.199999999999562, 10.600049999999781
-21.18999999999956, 10.59504999999978
-21.17999999999956, 10.59004999999978
-21.169999999999558, 10.585049999999779
-21.159999999999556, 10.580049999999778
-21.149999999999554, 10.575049999999777
-21.139999999999553, 10.570049999999776
-21.12999999999955, 10.565049999999776
-21.11999999999955, 10.560049999999775
-21.10999999999955, 10.555049999999774
-21.099999999999547, 10.550049999999773
-21.089999999999545, 10.545049999999772
-21.079999999999544, 10.540049999999772
-21.069999999999542, 10.53504999999977
-21.05999999999954, 10.53004999999977
-21.04999999999954, 10.52504999999977
-21.039999999999537, 10.520049999999769
-21.029999999999536, 10.515049999999768
-21.019999999999534, 10.510049999999767
-21.009999999999533, 10.505049999999766
-20.99999999999953, 10.500049999999765
-20.98999999999953, 10.495049999999765
-20.979999999999528, 10.490049999999764
-20.969999999999526, 10.485049999999763
-20.959999999999525, 10.480049999999762
-20.949999999999523, 10.475049999999761
-20.93999999999952, 10.47004999999976
-20.92999999999952, 10.46504999999976
-20.91999999999952, 10.46004999999976
-20.909999999999517, 10.455049999999758
-20.899999999999515, 10.450049999999758
-20.889999999999514, 10.445049999999757
-20.879999999999512, 10.440049999999756
-20.86999999999951, 10.435049999999755
-20.85999999999951, 10.430049999999754
-20.849999999999508, 10.425049999999754
-20.839999999999506, 10.420049999999753
-20.829999999999504, 10.415049999999752
-20.819999999999503, 10.410049999999751
-20.8099999999995, 10.40504999999975
-20.7999999999995, 10.40004999999975
-20.789999999999498, 10.395049999999749
-20.779999999999497, 10.390049999999748
-20.769999999999495, 10.385049999999747
-20.759999999999494, 10.380049999999747
-20.749999999999492, 10.375049999999746
-20.73999999999949, 10.370049999999745
-20.72999999999949, 10.365049999999744
-20.719999999999487, 10.360049999999744
-20.709999999999486, 10.355049999999743
-20.699999999999484, 10.350049999999742
-20.689999999999483, 10.345049999999741
-20.67999999999948, 10.34004999999974
-20.66999999999948, 10.33504999999974
-20.659999999999478, 10.330049999999739
-20.649999999999476, 10.325049999999738
-20.639999999999475, 10.320049999999737
-20.629999999999473, 10.315049999999736
-20.61999999999947, 10.310049999999736
-20.60999999999947, 10.305049999999735
-20.59999999999947, 10.300049999999734
-20.589999999999467, 10.295049999999733
-20.579999999999465, 10.290049999999733
-20.569999999999464, 10.285049999999732
-20.559999999999462, 10.280049999999731
-20.54999999999946, 10.27504999999973
-20.53999999999946, 10.27004999999973
-20.529999999999458, 10.265049999999729
-20.519999999999456, 10.260049999999728
-20.509999999999454, 10.255049999999727
-20.499999999999453, 10.250049999999726
-20.48999999999945, 10.245049999999726
-20.47999999999945, 10.240049999999725
-20.469999999999448, 10.235049999999724
-20.459999999999447, 10.230049999999723
-20.449999999999445, 10.225049999999722
-20.439999999999444, 10.220049999999722
-20.429999999999442, 10.21504999999972
-20.41999999999944, 10.21004999999972
-20.40999999999944, 10.20504999999972
-20.399999999999437, 10.200049999999719
-20.389999999999436, 10.195049999999718
-20.379999999999434, 10.190049999999717
-20.369999999999433, 10.185049999999716
-20.35999999999943, 10.180049999999715
-20.34999999999943, 10.175049999999715
-20.339999999999428, 10.170049999999714
-20.329999999999426, 10.165049999999713
-20.319999999999425, 10.160049999999712
-20.309999999999423, 10.155049999999711
-20.29999999999942, 10.15004999999971
-20.28999999999942, 10.14504999999971
-20.27999999999942, 10.14004999999971
-20.269999999999417, 10.135049999999708
-20.259999999999415, 10.130049999999708
-20.249999999999414, 10.125049999999707
-20.239999999999412, 10.120049999999706
-20.22999999999941, 10.115049999999705
-20.21999999999941, 10.110049999999704
-20.209999999999408, 10.105049999999704
-20.199999999999406, 10.100049999999703
-20.189999999999404, 10.095049999999702
-20.179999999999403, 10.090049999999701
-20.1699999999994, 10.0850499999997
-20.1599999999994, 10.0800499999997
-20.149999999999398, 10.075049999999699
-20.139999999999397, 10.070049999999698
-20.129999999999395, 10.065049999999697
-20.119999999999393, 10.060049999999697
-20.109999999999392, 10.055049999999696
-20.09999999999939, 10.050049999999695
-20.08999999999939, 10.045049999999694
-20.079999999999387, 10.040049999999693
-20.069999999999386, 10.035049999999693
-20.059999999999384, 10.030049999999692
-20.049999999999383, 10.025049999999691
-20.03999999999938, 10.02004999999969
-20.02999999999938, 10.01504999999969
-20.019999999999378, 10.010049999999689
-20.009999999999376, 10.005049999999688
-19.999999999999375, 10.000049999999687
-19.989999999999373, 9.995049999999686
-19.97999999999937, 9.990049999999686
-19.96999999999937, 9.985049999999685
-19.95999999999937, 9.980049999999684
-19.949999999999367, 9.975049999999683
-19.939999999999365, 9.970049999999683
-19.929999999999364, 9.965049999999682
-19.919999999999362, 9.960049999999681
-19.90999999999936, 9.95504999999968
-19.89999999999936, 9.95004999999968
-19.889999999999358, 9.945049999999679
-19.879999999999356, 9.940049999999678
-19.869999999999354, 9.935049999999677
-19.859999999999353, 9.930049999999676
-19.84999999999935, 9.925049999999676
-19.83999999999935, 9.920049999999675
-19.829999999999348, 9.915049999999674
-19.819999999999347, 9.910049999999673
-19.809999999999345, 9.905049999999672
-19.799999999999343, 9.900049999999672
-19.789999999999342, 9.89504999999967
-19.77999999999934, 9.89004999999967
-19.76999999999934, 9.88504999999967
-19.759999999999337, 9.880049999999668
-19.749999999999336, 9.875049999999668
-19.739999999999334, 9.870049999999667
-19.729999999999333, 9.865049999999666
-19.71999999999933, 9.860049999999665
-19.70999999999933, 9.855049999999665
-19.699999999999328, 9.850049999999664
-19.689999999999326, 9.845049999999663
-19.679999999999325, 9.840049999999662
-19.669999999999323, 9.835049999999661
-19.65999999999932, 9.83004999999966
-19.64999999999932, 9.82504999999966
-19.63999999999932, 9.820049999999659
-19.629999999999317, 9.815049999999658
-19.619999999999315, 9.810049999999658
-19.609999999999314, 9.805049999999657
-19.599999999999312, 9.800049999999656
-19.58999999999931, 9.795049999999655
-19.57999999999931, 9.790049999999654
-19.569999999999308, 9.785049999999654
-19.559999999999306, 9.780049999999653
-19.549999999999304, 9.775049999999652
-19.539999999999303, 9.770049999999651
-19.5299999999993, 9.76504999999965
-19.5199999999993, 9.76004999999965
-19.509999999999298, 9.755049999999649
-19.499999999999297, 9.750049999999648
-19.489999999999295, 9.745049999999647
-19.479999999999293, 9.740049999999647
-19.469999999999292, 9.735049999999646
-19.45999999999929, 9.730049999999645
-19.44999999999929, 9.725049999999644
-19.439999999999287, 9.720049999999643
-19.429999999999286, 9.715049999999643
-19.419999999999284, 9.710049999999642
-19.409999999999282, 9.705049999999641
-19.39999999999928, 9.70004999999964
-19.38999999999928, 9.69504999999964
-19.379999999999278, 9.690049999999639
-19.369999999999276, 9.685049999999638
-19.359999999999275, 9.680049999999637
-19.349999999999273, 9.675049999999636
-19.33999999999927, 9.670049999999636
-19.32999999999927, 9.665049999999635
-19.31999999999927, 9.660049999999634
-19.309999999999267, 9.655049999999633
-19.299999999999265, 9.650049999999633
-19.289999999999264, 9.645049999999632
-19.279999999999262, 9.640049999999631
-19.26999999999926, 9.63504999999963
-19.25999999999926, 9.63004999999963
-19.249999999999257, 9.625049999999629
-19.239999999999256, 9.620049999999628
-19.229999999999254, 9.615049999999627
-19.219999999999253, 9.610049999999626
-19.20999999999925, 9.605049999999625
-19.19999999999925, 9.600049999999625
-19.189999999999248, 9.595049999999624
-19.179999999999247, 9.590049999999623
-19.169999999999245, 9.585049999999622
-19.159999999999243, 9.580049999999622
-19.149999999999242, 9.57504999999962
-19.13999999999924, 9.57004999999962
-19.12999999999924, 9.56504999999962
-19.119999999999237, 9.560049999999618
-19.109999999999236, 9.555049999999618
-19.099999999999234, 9.550049999999617
-19.089999999999232, 9.545049999999616
-19.07999999999923, 9.540049999999615
-19.06999999999923, 9.535049999999615
-19.059999999999228, 9.530049999999614
-19.049999999999226, 9.525049999999613
-19.039999999999225, 9.520049999999612
-19.029999999999223, 9.515049999999611
-19.01999999999922, 9.51004999999961
-19.00999999999922, 9.50504999999961
-18.99999999999922, 9.500049999999609
-18.989999999999217, 9.495049999999608
-18.979999999999215, 9.490049999999608
-18.969999999999214, 9.485049999999607
-18.959999999999212, 9.480049999999606
-18.94999999999921, 9.475049999999605
-18.93999999999921, 9.470049999999604
-18.929999999999207, 9.465049999999604
-18.919999999999206, 9.460049999999603
-18.909999999999204, 9.455049999999602
